time (s)	coil I (A)	last det (V)	int current (uC)
1938.830127	0.467432	475.097656	-33.398437
1938.832127	0.502919	475.097656	-33.398437
1938.834129	0.501391	5.515305	0.630517
1939.870174	0.257779	181.738281	109.765625
1939.872175	0.488632	181.738281	109.765625
1939.874176	0.501739	181.738281	109.765625
1939.876175	0.500460	5.505060	0.621610
1940.908183	0.443486	474.804687	-33.691406
1940.910183	0.502026	474.804687	-33.691406
1940.912182	0.500400	5.504395	0.641364
1941.946212	0.478583	172.656250	123.242187
1941.948214	0.501519	172.656250	123.242187
1941.950213	0.499998	5.499973	0.672535
1942.986248	0.416206	474.023437	-33.203125
1942.988250	0.503111	474.023437	-33.203125
1942.990251	0.501320	5.514524	0.635781
1944.018288	0.343562	168.066406	138.964844
1944.020288	0.501894	168.066406	138.964844
1944.022288	0.501736	5.519098	0.626218
1945.060334	0.322705	473.632812	-31.835937
1945.062335	0.500930	473.632812	-31.835937
1945.064336	0.502423	5.526658	0.591595
1946.098340	0.501487	166.796875	140.820312
1946.100342	0.500361	5.503970	0.604942
1947.138348	0.270146	473.437500	-33.007812
1947.140349	0.492258	473.437500	-33.007812
1947.142350	0.502709	473.437500	-33.007812
1947.144351	0.501223	5.513453	0.642955
1948.176417	0.501071	176.367187	120.996094
1948.178419	0.499988	5.499866	0.670826
1949.215013	0.501324	470.703125	-31.640625
1949.217015	0.501413	5.515544	0.660534
1950.251597	0.497842	174.414062	123.828125
1950.253600	0.501220	174.414062	123.828125
1950.255599	0.499994	5.499928	0.632367
1951.284184	0.339794	473.535156	-33.789062
1951.286185	0.501635	473.535156	-33.789062
1951.290183	0.500516	5.505672	0.619094
1952.332250	0.502688	176.074219	115.234375
1952.334252	0.501051	5.511565	0.627254
1953.360358	0.411388	470.312500	-31.640625
1953.362360	0.503371	470.312500	-31.640625
1953.366358	0.500561	5.506176	0.656714
1954.410951	0.502749	175.976562	123.828125
1954.412952	0.501209	5.513302	0.616044
1955.435876	0.498676	475.195312	-31.152344
1955.437879	0.501801	5.519806	0.640063
1956.487894	0.502633	177.050781	130.273437
1956.489897	0.501450	177.050781	130.273437
1956.491897	0.501426	5.515686	0.628766
1957.509939	0.273793	467.382812	-27.441406
1957.511942	0.492684	467.382812	-27.441406
1957.513942	0.501624	467.382812	-27.441406
1957.515940	0.500408	5.504484	0.632188
1958.558511	0.502907	163.281250	162.792969
1958.560513	0.501341	5.514755	0.655996
1959.594514	0.464289	464.160156	-29.199219
1959.596516	0.502210	464.160156	-29.199219
1959.598517	0.500633	5.506965	0.644899
1960.626614	0.354391	163.964844	152.832031
1960.628616	0.502334	163.964844	152.832031
1960.630620	0.501876	5.520631	0.667072
1961.672653	0.460268	471.582031	-29.980469
1961.674654	0.502602	471.582031	-29.980469
1961.676655	0.501003	5.511033	0.633441
1962.704749	0.503022	169.238281	134.082031
1962.706752	0.501317	5.514489	0.657648
1963.747271	0.275284	475.097656	-33.984375
1963.751271	0.502025	475.097656	-33.984375
1963.753272	0.500614	475.097656	-33.984375
1963.755274	0.499929	5.499219	0.666315
1964.785354	0.490966	169.433594	129.589844
1964.787357	0.503377	169.433594	129.589844
1964.791353	0.501014	5.511157	0.763199
1965.817962	0.501808	476.367187	-32.617187
1965.819963	0.500441	5.504847	0.692699
1966.864021	0.248401	162.207031	150.976562
1966.866027	0.485995	162.207031	150.976562
1966.868027	0.502064	162.207031	150.976562
1966.870030	0.500611	5.506726	0.636378
1967.892064	0.471145	473.535156	-30.371094
1967.894064	0.501971	473.535156	-30.371094
1967.896062	0.500441	5.504856	0.659362
1968.942137	0.489629	161.328125	166.308594
1968.944139	0.501627	161.328125	166.308594
1968.946139	0.500407	5.504475	0.667590
1969.972174	0.502897	474.023437	-29.394531
1969.974176	0.501107	5.512176	0.652990
1971.010185	0.401736	166.113281	152.929687
1971.012187	0.502845	166.113281	152.929687
1971.014188	0.501100	5.512097	0.651929
1972.052260	0.467110	467.968750	-29.003906
1972.054262	0.502179	467.968750	-29.003906
1972.056264	0.500653	5.507186	0.623644
1973.083226	0.340972	165.527344	149.609375
1973.085228	0.502420	165.527344	149.609375
1973.089226	0.501303	5.514338	0.671752
1974.133295	0.502745	470.703125	-31.152344
1974.135296	0.501877	5.520648	0.655198
1975.159884	0.476991	162.792969	150.976562
1975.161884	0.501958	162.792969	150.976562
1975.163884	0.500479	5.505263	0.654118
1976.205910	0.502717	473.535156	-32.519531
1976.207912	0.501004	5.511042	0.636804
1977.238495	0.439881	159.277344	155.468750
1977.240497	0.503098	159.277344	155.468750
1977.242495	0.503038	5.533419	0.650195
1978.278534	0.454826	474.121094	-34.277344
1978.280536	0.502352	474.121094	-34.277344
1978.282538	0.500733	5.508064	0.673269
1979.319128	0.460830	162.597656	147.070312
1979.323127	0.500490	162.597656	147.070312
1979.325130	0.499645	5.496091	0.672772
1980.353194	0.503853	480.078125	-33.593750
1980.355196	0.502129	5.523422	0.670635
1981.395211	0.417678	167.480469	136.523437
1981.397213	0.502934	167.480469	136.523437
1981.399212	0.501091	5.511999	0.652760
1982.425239	0.419007	474.414062	-33.105469
1982.427242	0.502560	474.414062	-33.105469
1982.431240	0.499882	5.498696	0.668839
1983.473270	0.480044	160.937500	150.292969
1983.475272	0.502046	160.937500	150.292969
1983.477274	0.500664	5.507302	0.661332
1984.501321	0.458929	476.953125	-33.593750
1984.503322	0.502541	476.953125	-33.593750
1984.505328	0.500986	5.510847	0.663160
1985.551402	0.502494	158.886719	157.226562
1985.553405	0.502390	158.886719	157.226562
1985.555408	0.500738	5.508118	0.668905
1986.577438	0.368487	471.679687	-33.007812
1986.579444	0.502809	471.679687	-33.007812
1986.581449	0.501706	5.518770	0.691249
1987.623455	0.403808	160.351562	152.148437
1987.625457	0.503165	160.351562	152.148437
1987.629455	0.501445	5.515890	0.662955
1988.655498	0.480803	477.246094	-33.789062
1988.657499	0.502404	477.246094	-33.789062
1988.659499	0.501009	5.511104	0.683134
1989.701570	0.501501	168.066406	134.765625
1989.703571	0.500286	5.503146	0.661731
1990.732129	0.259959	474.707031	-33.789062
1990.734132	0.489418	474.707031	-33.789062
1990.738129	0.500628	474.707031	-33.789062
1990.740131	0.499979	5.499769	0.666772
1991.772735	0.447949	155.566406	165.429687
1991.774738	0.502087	155.566406	165.429687
1991.776739	0.500566	5.506229	0.675726
1992.812818	0.349354	476.757812	-33.203125
1992.814820	0.502064	476.757812	-33.203125
1992.816819	0.501701	5.518708	0.677601
1993.846846	0.499902	158.496094	160.546875
1993.848848	0.501168	5.512849	0.693760
1994.890899	0.474550	476.171875	-32.226562
1994.892899	0.502406	476.171875	-32.226562
1994.894899	0.500893	5.509819	0.662129
1995.920964	0.502622	165.039062	150.683594
1995.922968	0.501586	5.517449	0.678428
1996.967582	1.630190	475.585937	-31.445312
1996.969584	0.502166	475.585937	-31.445312
1996.971584	0.500512	5.505627	0.667942
1997.999670	0.494142	166.894531	150.878906
1998.001672	0.501479	166.894531	150.878906
1998.003672	0.500246	5.502711	0.853305
1999.037692	0.303851	470.410156	-29.687500
1999.039692	0.498557	470.410156	-29.687500
1999.041692	0.501865	470.410156	-29.687500
1999.043693	0.500558	5.506141	0.675778
2000.079712	0.471074	159.472656	172.167969
2000.081712	0.502273	159.472656	172.167969
2000.083713	0.502220	5.524424	0.667346
2001.109759	0.365432	470.898437	-29.687500
2001.111759	0.502146	470.898437	-29.687500
2001.115757	0.499948	5.499432	0.669778
2002.159770	0.466252	162.304687	159.277344
2002.161772	0.502141	162.304687	159.277344
2002.163772	0.500672	5.507390	0.677033
2003.186310	0.480745	478.906250	-32.324219
2003.188313	0.501999	478.906250	-32.324219
2003.192310	0.499764	5.497403	0.716648
2004.234402	0.502526	164.648437	144.628906
2004.236405	0.501119	5.512309	0.670992
2005.266983	0.503962	481.347656	-34.765625
2005.268986	0.502316	481.347656	-34.765625
2005.270986	0.501259	5.513851	0.680996
2006.305049	0.466046	160.546875	155.273437
2006.307050	0.502064	160.546875	155.273437
2006.309051	0.500558	5.506141	0.691152
2007.347087	0.367719	478.027344	-32.910156
2007.349089	0.501670	478.027344	-32.910156
2007.351089	0.500488	5.505370	0.684626
2008.375619	0.274803	151.757812	181.152344
2008.379621	0.501700	151.757812	181.152344
2008.381622	0.500465	151.757812	181.152344
2008.387620	0.498631	5.484942	0.712698
2009.425663	0.501407	479.101562	-31.835937
2009.427665	0.501824	5.520063	0.669421
2010.455789	0.502450	164.843750	156.152344
2010.457791	0.500806	5.508862	0.695129
2011.497883	0.270530	475.488281	-30.566406
2011.499889	0.492059	475.488281	-30.566406
2011.501895	0.502038	475.488281	-30.566406
2011.503897	0.500670	5.507373	0.690816
2012.534384	0.491823	158.300781	174.707031
2012.536386	0.502140	158.300781	174.707031
2012.538387	0.500885	5.509730	0.818556
2013.570441	0.385245	476.855469	-29.687500
2013.572440	0.503198	476.855469	-29.687500
2013.574441	0.501693	5.518628	0.686581
2014.610471	0.271456	158.300781	176.953125
2014.614474	0.502185	158.300781	176.953125
2014.616474	0.500823	158.300781	176.953125
2014.618474	0.499986	5.499849	0.687928
2015.644521	0.452782	478.808594	-30.371094
2015.646523	0.502541	478.808594	-30.371094
2015.648523	0.500914	5.510058	0.676217
2016.690581	0.350592	159.667969	172.949219
2016.692583	0.502197	159.667969	172.949219
2016.694583	0.501731	5.519045	0.685680
2017.718620	0.395299	481.152344	-30.957031
2017.720621	0.503284	481.152344	-30.957031
2017.722621	0.501613	5.517742	0.697113
2018.768626	0.492473	164.648437	158.300781
2018.770627	0.502166	164.648437	158.300781
2018.772628	0.500884	5.509721	0.823734
2019.794685	0.415619	479.687500	-31.152344
2019.796687	0.502320	479.687500	-31.152344
2019.798686	0.500760	5.508356	0.700668
2020.844741	0.478068	151.464844	186.621094
2020.846745	0.502525	151.464844	186.621094
2020.848745	0.501113	5.512247	0.686736
2021.870781	0.373332	481.152344	-31.933594
2021.872782	0.503090	481.152344	-31.933594
2021.874782	0.501845	5.520294	0.697728
2022.920841	0.456124	162.500000	159.375000
2022.922844	0.503637	162.500000	159.375000
2022.924842	0.502042	5.522457	0.685584
2023.946847	0.462344	476.562500	-30.957031
2023.948849	0.502750	476.562500	-30.957031
2023.950851	0.502677	5.529449	0.693428
2024.995784	0.278295	162.988281	157.812500
2024.997786	0.493409	162.988281	157.812500
2024.999787	0.501449	162.988281	157.812500
2025.001786	0.500108	5.501187	0.695414
2026.023782	0.461938	480.175781	-31.738281
2026.025784	0.502111	480.175781	-31.738281
2026.027787	0.500659	5.507249	0.701862
2027.073839	0.483089	149.804687	192.187500
2027.075840	0.502112	149.804687	192.187500
2027.077839	0.500762	5.508383	0.690857
2028.105915	0.499925	476.367187	-30.468750
2028.109916	0.498953	5.488479	0.688500
2029.146850	0.279610	162.988281	163.476562
2029.148853	0.494292	162.988281	163.476562
2029.150852	0.502392	162.988281	163.476562
2029.152854	0.501053	5.511583	0.695509
2030.175798	0.372158	480.859375	-30.859375
2030.177800	0.502548	480.859375	-30.859375
2030.179800	0.501382	5.515207	0.693182
2031.223853	0.498833	160.839844	171.484375
2031.225854	0.503602	160.839844	171.484375
2031.227853	0.502354	5.525895	0.904358
2032.257882	0.503347	478.417969	-30.273437
2032.259883	0.501587	5.517458	0.689797
2033.300466	0.501216	147.167969	204.101562
2033.302466	0.500292	5.503217	0.749674
2034.334517	0.466845	478.222656	-30.468750
2034.336520	0.502214	478.222656	-30.468750
2034.338520	0.500704	5.507745	0.684458
2035.368562	0.396973	158.886719	172.656250
2035.370561	0.401773	158.886719	172.656250
2035.372562	0.501592	5.517511	0.706682
2036.413088	0.498394	477.246094	-30.664062
2036.415091	0.503236	477.246094	-30.664062
2036.417089	0.501917	5.521091	0.688670
2037.443671	0.375774	147.851562	196.679687
2037.445674	0.502711	147.851562	196.679687
2037.447673	0.501408	5.515491	0.714650
2038.491713	0.426938	479.589844	-32.031250
2038.493715	0.500369	5.504058	0.685403
2039.522245	0.459355	157.031250	167.382812
2039.524246	0.502282	157.031250	167.382812
2039.526248	0.500706	5.507763	0.694049
2040.567238	0.500681	483.300781	-35.351562
2040.569241	0.499920	5.499122	0.689537
2041.601318	0.419081	148.535156	183.203125
2041.603320	0.502551	148.535156	183.203125
2041.605319	0.500702	5.507718	0.694833
2042.635350	0.424266	482.226562	-34.667969
2042.637352	0.502218	482.226562	-34.667969
2042.639352	0.500524	5.505760	0.709059
2043.681399	0.486570	149.511719	182.519531
2043.683401	0.501805	149.511719	182.519531
2043.685400	0.500438	5.504820	0.743086
2044.709448	0.436287	479.492187	-32.910156
2044.711450	0.502409	479.492187	-32.910156
2044.713448	0.500667	5.507338	0.696671
2045.759464	0.502137	149.121094	192.480469
2045.761468	0.501724	5.518965	0.699560
2046.785489	0.376650	478.515625	-31.054687
2046.787492	0.501940	478.515625	-31.054687
2046.789490	0.500619	5.506805	0.707141
2047.834060	0.502236	145.605469	208.593750
2047.836063	0.500924	5.510165	0.778482
2048.864085	0.298401	477.929687	-30.566406
2048.866082	0.498417	477.929687	-30.566406
2048.868081	0.503019	477.929687	-30.566406
2048.870083	0.501721	5.518929	0.694914
2049.906672	0.502996	152.441406	188.964844
2049.908672	0.501242	5.513665	0.698909
2050.945203	0.483409	480.078125	-31.640625
2050.947208	0.502232	480.078125	-31.640625
2050.949211	0.500792	5.508711	0.726443
2051.977268	0.334927	146.875000	199.023437
2051.979269	0.501511	146.875000	199.023437
2051.981270	0.502029	5.522324	0.713081
2053.021320	0.265884	480.566406	-32.421875
2053.023324	0.490409	480.566406	-32.421875
2053.025323	0.501244	480.566406	-32.421875
2053.027322	0.499998	5.499982	0.691529
2054.053382	0.474097	144.335937	202.832031
2054.055385	0.502728	144.335937	202.832031
2054.057384	0.501272	5.513993	0.707303
2055.101464	0.502409	478.808594	-32.324219
2055.103466	0.500742	5.508162	0.689987
2056.128432	0.405933	146.777344	194.726562
2056.130437	0.502939	146.777344	194.726562
2056.132439	0.501282	5.514099	0.710845
2057.176489	0.500254	483.105469	-33.203125
2057.178493	0.504761	483.105469	-33.203125
2057.180492	0.504709	5.551800	0.905883
2058.204524	0.379950	154.394531	174.218750
2058.206526	0.502343	154.394531	174.218750
2058.208529	0.500922	5.510138	0.728098
2059.251574	0.776960	481.445312	-33.496094
2059.253577	0.501560	481.445312	-33.496094
2059.257575	0.499571	5.495275	0.699050
2060.282160	0.404778	145.507812	197.363281
2060.284161	0.503251	145.507812	197.363281
2060.286162	0.501531	5.516838	0.704156
2061.326221	0.400807	483.593750	-33.789062
2061.328222	0.502804	483.593750	-33.789062
2061.330222	0.501069	5.511760	0.693653
2062.360220	0.503535	148.144531	188.671875
2062.362222	0.501918	148.144531	188.671875
2062.364223	0.500849	5.509340	0.707975
2063.402268	0.350013	483.593750	-34.375000
2063.404269	0.501794	483.593750	-34.375000
2063.406270	0.501373	5.515101	0.698717
2064.434279	0.451948	153.125000	177.636719
2064.436282	0.502823	153.125000	177.636719
2064.438281	0.501186	5.513045	0.709932
2065.479229	0.448284	483.496094	-33.496094
2065.481231	0.502468	483.496094	-33.496094
2065.483230	0.500914	5.510049	0.695413
2066.509265	0.377212	142.773437	205.078125
2066.511269	0.502406	142.773437	205.078125
2066.513268	0.500980	5.510785	0.708220
2067.555774	0.436312	482.714844	-33.398437
2067.557776	0.503053	482.714844	-33.398437
2067.559776	0.503003	5.533029	0.689283
2068.586267	0.474574	146.777344	196.289062
2068.588269	0.502192	146.777344	196.289062
2068.590271	0.500648	5.507133	0.708329
2069.632286	0.454877	479.882812	-33.007812
2069.636285	0.500748	479.882812	-33.007812
2069.638289	0.499845	5.498298	0.701426
2070.660885	0.289189	142.578125	209.765625
2070.662887	0.496169	142.578125	209.765625
2070.664887	0.502205	142.578125	209.765625
2070.666889	0.500872	5.509588	0.722393
2071.706910	0.350784	481.445312	-32.519531
2071.708912	0.502800	481.445312	-32.519531
2071.710911	0.502539	5.527925	0.701411
2072.738981	0.446277	143.164062	210.742187
2072.740985	0.502244	143.164062	210.742187
2072.744983	0.499756	5.497314	0.706144
2073.781026	0.419675	479.492187	-31.640625
2073.783028	0.502736	479.492187	-31.640625
2073.785026	0.500945	5.510395	0.695660
2074.819080	0.473324	145.312500	208.984375
2074.821083	0.502154	145.312500	208.984375
2074.823082	0.500586	5.506451	0.701218
2075.855106	0.492199	481.152344	-31.250000
2075.857107	0.501428	481.152344	-31.250000
2075.861105	0.499529	5.494815	0.834229
2076.899133	0.502527	141.308594	219.824219
2076.901134	0.500932	5.510253	0.709886
2077.927158	0.300892	481.835937	-31.835937
2077.929160	0.498084	481.835937	-31.835937
2077.931160	0.501504	481.835937	-31.835937
2077.933160	0.500293	5.503225	0.709425
2078.975194	0.395864	154.785156	179.003906
2078.977197	0.502796	154.785156	179.003906
2078.979196	0.501053	5.511583	0.704966
2080.001229	0.254691	481.054687	-32.910156
2080.003232	0.487555	481.054687	-32.910156
2080.005231	0.501586	481.054687	-32.910156
2080.007231	0.500246	5.502703	0.714630
2081.053257	0.504979	142.871094	202.636719
2081.055260	0.503501	5.538507	0.699860
2082.083310	0.500876	482.714844	-35.253906
2082.085313	0.499800	5.497802	0.714058
2083.125878	0.486156	139.843750	208.007812
2083.127879	0.501963	139.843750	208.007812
2083.129878	0.500646	5.507107	0.706021
2084.161890	0.495302	483.886719	-35.937500
2084.163892	0.501733	483.886719	-35.937500
2084.167891	0.499688	5.496570	0.872013
2085.197920	0.478380	151.464844	178.515625
2085.199921	0.501785	151.464844	178.515625
2085.201920	0.500288	5.503172	0.708425
2086.239944	0.469057	483.398437	-34.667969
2086.241944	0.501602	483.398437	-34.667969
2086.243943	0.500121	5.501329	0.706472
2087.270503	0.321549	149.414062	186.816406
2087.272504	0.500649	149.414062	186.816406
2087.274504	0.502115	5.523263	0.724774
2088.317465	0.444012	483.691406	-33.593750
2088.319467	0.501980	483.691406	-33.593750
2088.323465	0.499425	5.493671	0.687027
2089.347465	0.473522	137.304687	223.730469
2089.349466	0.502089	137.304687	223.730469
2089.351465	0.500748	5.508224	0.717689
2090.393486	0.486852	483.007812	-32.812500
2090.395489	0.501566	483.007812	-32.812500
2090.397488	0.500114	5.501258	0.699912
2091.423514	0.386695	140.722656	216.699219
2091.425517	0.502734	140.722656	216.699219
2091.427517	0.501227	5.513496	0.711293
2092.467551	0.410027	482.714844	-32.519531
2092.469551	0.503191	482.714844	-32.519531
2092.471550	0.501511	5.516625	0.705558
2093.501637	0.436700	140.332031	220.507812
2093.503641	0.502070	140.332031	220.507812
2093.505638	0.500394	5.504333	0.708370
2094.541695	0.300631	482.324219	-31.542969
2094.543696	0.497883	482.324219	-31.542969
2094.545696	0.501347	482.324219	-31.542969
2094.547695	0.500232	5.502552	0.699340
2095.579769	0.472503	140.722656	222.656250
2095.583772	0.500528	140.722656	222.656250
2095.585771	0.499663	5.496295	0.706615
2096.617799	0.469401	482.519531	-31.347656
2096.619803	0.502559	482.519531	-31.347656
2096.621801	0.501055	5.511609	0.691197
2097.655851	0.387951	147.656250	204.492187
2097.657855	0.503017	147.656250	204.492187
2097.659865	0.501469	5.516164	0.705067
2098.692476	0.364017	482.812500	-31.445312
2098.694480	0.502175	482.812500	-31.445312
2098.696478	0.501208	5.513293	0.694996
2099.732507	0.402158	142.480469	218.066406
2099.734509	0.503282	142.480469	218.066406
2099.736508	0.501604	5.517644	0.704457
2100.768570	0.447271	483.300781	-31.835937
2100.770572	0.502498	483.300781	-31.835937
2100.772572	0.500925	5.510173	0.695364
2101.808605	0.377454	142.285156	219.140625
2101.810606	0.502456	142.285156	219.140625
2101.812607	0.501125	5.512372	0.708317
2102.844637	1.689946	483.300781	-31.152344
2102.848635	0.501707	483.300781	-31.152344
2102.850638	0.500599	5.506593	0.697782
2103.884647	0.479367	151.855469	195.996094
2103.886649	0.481694	151.855469	195.996094
2103.890646	0.499944	5.499388	0.708543
2104.924717	0.502651	482.519531	-31.152344
2104.926716	0.501097	5.512070	0.684286
2105.959242	0.375300	136.718750	234.570312
2105.961243	0.502439	136.718750	234.570312
2105.963242	0.501171	5.512886	0.703677
2106.999295	0.399623	481.640625	-31.347656
2107.001297	0.502854	481.640625	-31.347656
2107.003296	0.501207	5.513275	0.690416
2108.033346	0.374526	140.234375	221.777344
2108.035346	0.502649	140.234375	221.777344
2108.037348	0.501335	5.514684	0.708325
2109.077377	0.415271	483.105469	-32.031250
